#Acq. time (s)=	10
#Accumulations=	5
#AutoExposure=	Off
#Spike filter=	Multiple accum.
#Readout mode=	Signal
#DeNoise=	Off
#ICS correction=	Off
#Dark correction=	Off
#Inst. Process=	Off
#Detector Gain=	High Sensitivity
#Detector ADC=	45 kHz 
#Detector temperature (°C)=	-49.97
#Instrument=	OSD
#Detector=	Syncerity
#Grating=	685
#Laser (nm)=	785 
#Spectro (cm-¹)=	2019.74
#Laser power=	50
#E-Cal_Neon=	0
#Full time(s)=	51
#AC=	Not calibrated
#Project=	A
#Sample=	B
#Site=	C
#Title=	CC-124-TAP-1_8
#Remark=	
#Date=	08.10.2024 13:55
#Acquired=	08.10.2024 13:55:30
#AxisType[0]=Intens
#AxisUnit[0]=Cnt
#AxisType[1]=Spectr
#AxisUnit[1]=1/cm
3513.15	15.5
3511.88	19.5
3510.6	17
3509.33	14.5
3508.05	10
3506.77	13.5
3505.49	15
3504.22	14.5
3502.94	15
3501.66	16
3500.38	19
3499.1	15.5
3497.82	16
3496.54	12.5
3495.26	17
3493.98	18
3492.7	20.5
3491.42	11
3490.14	14
3488.85	14
3487.57	11
3486.29	16
3485.01	14.5
3483.72	17.5
3482.44	18
3481.15	19.5
3479.87	13
3478.59	17
3477.3	17.5
3476.02	18.5
3474.73	19
3473.44	15
3472.16	16.5
3470.87	19
3469.58	21.5
3468.3	19.5
3467.01	13
3465.72	16.5
3464.43	17
3463.14	19
3461.85	19.5
3460.56	15.5
3459.28	17
3457.99	18
3456.69	15.5
3455.4	17
3454.11	17
3452.82	17
3451.53	17
3450.24	15
3448.95	16
3447.65	19
3446.36	23.5
3445.07	14
3443.77	17.5
3442.48	19
3441.18	21.5
3439.89	22
3438.59	20.5
3437.3	17
3436	22
3434.71	21
3433.41	18.5
3432.11	16.5
3430.81	19
3429.52	20.5
3428.22	18
3426.92	20.5
3425.62	17
3424.32	19
3423.02	15
3421.72	16
3420.42	18.5
3419.12	18
3417.82	18
3416.52	17
3415.22	21
3413.92	22
3412.62	20.5
3411.31	20
3410.01	19.5
3408.71	22
3407.41	16.5
3406.1	17
3404.8	21
3403.49	21.5
3402.19	22.5
3400.88	19.5
3399.58	22
3398.27	24
3396.97	16.5
3395.66	24.5
3394.35	23
3393.05	19.5
3391.74	18.5
3390.43	22
3389.12	23.5
3387.82	20
3386.51	19
3385.2	21
3383.89	25.5
3382.58	16
3381.27	19
3379.96	15.5
3378.65	24
3377.34	21.5
3376.02	19
3374.71	22
3373.4	23.5
3372.09	22
3370.77	25
3369.46	22
3368.15	22.5
3366.83	20
3365.52	20.5
3364.2	25
3362.89	20.5
3361.57	22.5
3360.26	21
3358.94	23.5
3357.63	20.5
3356.31	22.5
3354.99	23.5
3353.67	25
3352.36	28.5
3351.04	24
3349.72	21
3348.4	21.5
3347.08	22.5
3345.76	23.5
3344.44	24
3343.12	18
3341.8	20
3340.48	23
3339.16	19.5
3337.84	22.5
3336.52	24
3335.2	21.5
3333.87	19
3332.55	22
3331.23	23
3329.9	26
3328.58	20.5
3327.25	30
3325.93	25
3324.61	18
3323.28	24
3321.95	26.5
3320.63	24.5
3319.3	24.5
3317.98	26.5
3316.65	23
3315.32	24.5
3313.99	26
3312.66	20
3311.34	25
3310.01	23.5
3308.68	22.5
3307.35	23.5
3306.02	23.5
3304.69	24.5
3303.36	26
3302.03	19.5
3300.7	28
3299.36	23
3298.03	27
3296.7	23
3295.37	22
3294.04	25.5
3292.7	18
3291.37	24
3290.03	25
3288.7	26.5
3287.36	29.5
3286.03	24
3284.69	28
3283.36	24
3282.02	25
3280.69	26
3279.35	23.5
3278.01	23
3276.68	27
3275.34	29
3274	23
3272.66	22.5
3271.32	24.5
3269.98	21.5
3268.64	25.5
3267.3	27
3265.96	27
3264.62	23
3263.28	24
3261.94	26.5
3260.6	27
3259.26	24
3257.92	30
3256.57	20.5
3255.23	28
3253.89	24.5
3252.54	26
3251.2	27
3249.85	24
3248.51	28.5
3247.16	27
3245.82	29
3244.47	31
3243.13	28.5
3241.78	28
3240.43	28
3239.09	26
3237.74	32.5
3236.39	28
3235.04	27
3233.69	27
3232.34	26
3230.99	31.5
3229.65	28
3228.3	31
3226.94	31.5
3225.59	24
3224.24	26.5
3222.89	25
3221.54	29
3220.19	25.5
3218.84	28
3217.48	29.5
3216.13	28.5
3214.78	29
3213.42	30
3212.07	30
3210.71	28.5
3209.36	31.5
3208	29
3206.65	32.5
3205.29	30.5
3203.93	34.5
3202.58	27.5
3201.22	29
3199.86	31.5
3198.51	32
3197.15	37
3195.79	33
3194.43	31.5
3193.07	29
3191.71	28.5
3190.35	33.5
3188.99	31
3187.63	24.5
3186.27	29.5
3184.91	35.5
3183.55	35.5
3182.19	33
3180.82	30.5
3179.46	31.5
3178.1	33.5
3176.73	32.5
3175.37	32
3174.01	30.5
3172.64	31
3171.28	34.5
3169.91	31
3168.55	35
3167.18	36
3165.81	36.5
3164.45	33
3163.08	34
3161.71	35
3160.35	33
3158.98	33
3157.61	33.5
3156.24	32
3154.87	35
3153.5	32
3152.13	32
3150.76	32
3149.39	36
3148.02	33.5
3146.65	33
3145.28	31.5
3143.91	33
3142.54	32
3141.16	33
3139.79	32
3138.42	33
3137.04	31.5
3135.67	35.5
3134.29	35
3132.92	31
3131.54	31
3130.17	36
3128.79	34
3127.42	39
3126.04	36.5
3124.66	37
3123.29	30
3121.91	35.5
3120.53	41.5
3119.15	37
3117.77	37
3116.39	39
3115.02	41
3113.64	42.5
3112.26	42.5
3110.88	45
3109.49	39
3108.11	42
3106.73	43.5
3105.35	42
3103.97	45
3102.59	55.5
3101.2	43.5
3099.82	43
3098.44	52
3097.05	56.5
3095.67	54
3094.28	59
3092.9	55
3091.51	60
3090.13	64
3088.74	65
3087.35	70
3085.97	74
3084.58	87
3083.19	88
3081.8	92.5
3080.42	90.5
3079.03	97.5
3077.64	99.5
3076.25	114.5
3074.86	122.5
3073.47	125
3072.08	136.5
3070.69	149
3069.3	157
3067.91	169
3066.51	171.5
3065.12	190.5
3063.73	184.5
3062.34	198.5
3060.94	201.5
3059.55	203
3058.16	201
3056.76	210.5
3055.37	214.5
3053.97	213
3052.58	204.5
3051.18	211
3049.78	208
3048.39	202.5
3046.99	192.5
3045.59	178
3044.2	181
3042.8	165
3041.4	163.5
3040	163.5
3038.6	150
3037.2	150
3035.8	146.5
3034.4	139
3033	128.5
3031.6	116.5
3030.2	111.5
3028.8	116
3027.4	104.5
3025.99	99.5
3024.59	99
3023.19	99.5
3021.78	84
3020.38	86.5
3018.98	76.5
3017.57	83.5
3016.17	77.5
3014.76	72
3013.36	68
3011.95	69
3010.54	70
3009.14	66
3007.73	69
3006.32	62.5
3004.92	67.5
3003.51	67
3002.1	67
3000.69	66
2999.28	64
2997.87	70.5
2996.46	66
2995.05	61.5
2993.64	58
2992.23	63.5
2990.82	66
2989.41	62
2988	61
2986.58	58.5
2985.17	66
2983.76	63.5
2982.34	64.5
2980.93	71.5
2979.52	66
2978.1	59.5
2976.69	70
2975.27	73.5
2973.86	65.5
2972.44	60
2971.02	67
2969.61	69
2968.19	68.5
2966.77	63.5
2965.35	62.5
2963.94	69
2962.52	65
2961.1	70
2959.68	72
2958.26	67
2956.84	67.5
2955.42	76
2954	73.5
2952.58	74
2951.16	74
2949.73	81
2948.31	73.5
2946.89	81
2945.47	85
2944.04	89.5
2942.62	92.5
2941.19	96
2939.77	99
2938.34	86.5
2936.92	102.5
2935.49	106.5
2934.07	113
2932.64	114
2931.22	116.5
2929.79	124
2928.36	113.5
2926.93	132
2925.5	129
2924.08	132
2922.65	138.5
2921.22	139
2919.79	134
2918.36	147
2916.93	142
2915.5	148.5
2914.07	151
2912.64	152
2911.2	157.5
2909.77	158.5
2908.34	165
2906.91	165
2905.47	165
2904.04	163
2902.61	165
2901.17	161.5
2899.74	159.5
2898.3	159
2896.87	161.5
2895.43	148.5
2893.99	152
2892.56	141
2891.12	138.5
2889.68	145.5
2888.25	130.5
2886.81	134.5
2885.37	121
2883.93	128
2882.49	122
2881.05	119
2879.61	114
2878.17	108
2876.73	110
2875.29	100.5
2873.85	102.5
2872.41	107.5
2870.97	106
2869.52	101
2868.08	99
2866.64	107.5
2865.19	103.5
2863.75	100
2862.31	108.5
2860.86	108
2859.42	108
2857.97	113
2856.52	102.5
2855.08	105
2853.63	110
2852.19	109
2850.74	110.5
2849.29	108.5
2847.84	101.5
2846.39	95.5
2844.95	98.5
2843.5	88
2842.05	80.5
2840.6	83
2839.15	80
2837.7	74
2836.25	70
2834.79	74.5
2833.34	67.5
2831.89	73.5
2830.44	60
2828.99	64.5
2827.53	60.5
2826.08	58
2824.62	50.5
2823.17	52
2821.72	59
2820.26	53
2818.81	55
2817.35	52
2815.89	53
2814.44	52
2812.98	50.5
2811.52	48
2810.06	48.5
2808.61	52
2807.15	45.5
2805.69	50
2804.23	49
2802.77	49
2801.31	48
2799.85	54
2798.39	51.5
2796.93	46.5
2795.47	47.5
2794.01	53
2792.54	50
2791.08	51.5
2789.62	45
2788.16	50
2786.69	52
2785.23	52
2783.76	51
2782.3	51.5
2780.83	47
2779.37	52
2777.9	54
2776.44	53.5
2774.97	52
2773.5	55
2772.04	49
2770.57	46.5
2769.1	47
2767.63	46
2766.16	51
2764.69	49.5
2763.22	51.5
2761.75	47.5
2760.28	46.5
2758.81	50.5
2757.34	53.5
2755.87	49
2754.4	55.5
2752.93	48
2751.45	44
2749.98	46.5
2748.51	47.5
2747.03	46.5
2745.56	48.5
2744.09	53.5
2742.61	46
2741.14	55
2739.66	53
2738.18	58.5
2736.71	50.5
2735.23	61
2733.75	50.5
2732.28	56.5
2730.8	54.5
2729.32	54
2727.84	53.5
2726.36	53.5
2724.88	52.5
2723.4	57
2721.92	57
2720.44	58.5
2718.96	56
2717.48	51
2716	49
2714.52	51.5
2713.04	58
2711.55	54.5
2710.07	56.5
2708.59	55
2707.1	55
2705.62	54.5
2704.13	54
2702.65	57
2701.16	57
2699.68	58
2698.19	56
2696.7	56
2695.22	50
2693.73	51.5
2692.24	55.5
2690.76	60
2689.27	58
2687.78	60.5
2686.29	59
2684.8	59.5
2683.31	53.5
2681.82	63
2680.33	58
2678.84	54
2677.35	61.5
2675.85	56
2674.36	58
2672.87	51.5
2671.38	60
2669.88	60.5
2668.39	55.5
2666.9	57
2665.4	56
2663.91	54
2662.41	57.5
2660.92	58
2659.42	57.5
2657.92	58
2656.43	57
2654.93	62.5
2653.43	59
2651.93	61.5
2650.44	65
2648.94	64.5
2647.44	57
2645.94	60.5
2644.44	63.5
2642.94	63.5
2641.44	67.5
2639.94	61
2638.44	61
2636.93	62.5
2635.43	64
2633.93	64.5
2632.43	60.5
2630.92	64
2629.42	64
2627.92	61.5
2626.41	61
2624.91	59.5
2623.4	63.5
2621.9	69
2620.39	65
2618.88	71.5
2617.38	59
2615.87	61
2614.36	67.5
2612.86	64.5
2611.35	62.5
2609.84	63
2608.33	63
2606.82	66.5
2605.31	67.5
2603.8	64
2602.29	69
2600.78	62
2599.27	69.5
2597.76	61.5
2596.24	62
2594.73	64
2593.22	65
2591.71	69.5
2590.19	64
2588.68	61
2587.16	62.5
2585.65	63
2584.13	60
2582.62	62
2581.1	61
2579.59	67
2578.07	62
2576.55	61.5
2575.04	65
2573.52	63.5
2572	61
2570.48	56.5
2568.96	70.5
2567.44	59
2565.92	69
2564.4	62
2562.88	64
2561.36	60.5
2559.84	60
2558.32	64
2556.8	62
2555.27	66.5
2553.75	65
2552.23	60
2550.71	63.5
2549.18	68.5
2547.66	60.5
2546.13	62.5
2544.61	62
2543.08	64
2541.56	64.5
2540.03	61.5
2538.5	63
2536.98	67
2535.45	61
2533.92	66
2532.39	64
2530.86	61
2529.34	62
2527.81	65
2526.28	60
2524.75	59
2523.22	60.5
2521.68	60
2520.15	69
2518.62	72
2517.09	61.5
2515.56	69
2514.02	64
2512.49	65.5
2510.96	59
2509.42	64
2507.89	63.5
2506.35	72
2504.82	62.5
2503.28	70.5
2501.75	61.5
2500.21	67
2498.67	63.5
2497.14	61.5
2495.6	69
2494.06	63.5
2492.52	65.5
2490.99	71
2489.45	67
2487.91	67.5
2486.37	67.5
2484.83	62.5
2483.29	62.5
2481.75	66
2480.2	72
2478.66	75
2477.12	63
2475.58	72.5
2474.03	68.5
2472.49	68
2470.95	68.5
2469.4	68.5
2467.86	70
2466.31	67.5
2464.77	72
2463.22	68
2461.68	69.5
2460.13	68
2458.58	64.5
2457.04	68.5
2455.49	70
2453.94	73
2452.39	71.5
2450.84	73
2449.29	66
2447.74	68
2446.2	70.5
2444.64	66.5
2443.09	67
2441.54	69
2439.99	69.5
2438.44	65
2436.89	67
2435.33	68.5
2433.78	72.5
2432.23	69.5
2430.67	67
2429.12	68.5
2427.56	61
2426.01	75
2424.45	71
2422.9	70
2421.34	72
2419.79	71.5
2418.23	67.5
2416.67	71
2415.11	68
2413.56	72
2412	66
2410.44	68
2408.88	74.5
2407.32	65
2405.76	69
2404.2	68
2402.64	68.5
2401.08	74.5
2399.51	75
2397.95	70.5
2396.39	68.5
2394.83	69.5
2393.26	71
2391.7	67
2390.13	67.5
2388.57	67
2387.01	70.5
2385.44	66.5
2383.87	72.5
2382.31	63
2380.74	71
2379.18	76
2377.61	71
2376.04	76.5
2374.47	68
2372.9	76
2371.33	67
2369.77	67
2368.2	76
2366.63	71
2365.06	68.5
2363.48	73
2361.91	72.5
2360.34	76.5
2358.77	69.5
2357.2	74
2355.62	74.5
2354.05	73
2352.48	77.5
2350.9	79
2349.33	70.5
2347.75	68
2346.18	72
2344.6	73
2343.03	76.5
2341.45	78.5
2339.87	76
2338.3	78.5
2336.72	73
2335.14	79
2333.56	88
2331.98	105.5
2330.41	109.5
2328.83	118
2327.25	105
2325.67	103
2324.09	91.5
2322.5	83
2320.92	84
2319.34	78
2317.76	73
2316.18	78
2314.59	71.5
2313.01	79
2311.42	78.5
2309.84	83.5
2308.26	68.5
2306.67	76.5
2305.08	73
2303.5	72.5
2301.91	75.5
2300.33	77
2298.74	77.5
2297.15	77.5
2295.56	78
2293.98	83
2292.39	77
2290.8	81.5
2289.21	76.5
2287.62	74
2286.03	74
2284.44	78
2282.85	77
2281.25	80
2279.66	76
2278.07	74.5
2276.48	75
2274.88	75
2273.29	77
2271.7	77
2270.1	74.5
2268.51	73
2266.91	76.5
2265.32	77.5
2263.72	77
2262.12	79
2260.53	73.5
2258.93	73.5
2257.33	69
2255.74	75
2254.14	82.5
2252.54	78.5
2250.94	75.5
2249.34	69.5
2247.74	73.5
2246.14	78.5
2244.54	73
2242.94	76
2241.34	77.5
2239.73	73
2238.13	71
2236.53	73
2234.93	77
2233.32	81.5
2231.72	77
2230.11	80
2228.51	76
2226.9	84.5
2225.3	81
2223.69	82
2222.09	78.5
2220.48	76
2218.87	74
2217.26	84
2215.66	77
2214.05	83.5
2212.44	80
2210.83	81
2209.22	83.5
2207.61	83
2206	85
2204.39	82
2202.78	82
2201.17	79.5
2199.55	81
2197.94	78
2196.33	84.5
2194.72	81.5
2193.1	85.5
2191.49	80.5
2189.87	84
2188.26	83
2186.64	82
2185.03	85.5
2183.41	82
2181.8	82.5
2180.18	83
2178.56	87.5
2176.94	87
2175.33	87
2173.71	79
2172.09	85.5
2170.47	89
2168.85	90
2167.23	86
2165.61	82
2163.99	83.5
2162.37	85
2160.74	88.5
2159.12	80
2157.5	80.5
2155.88	85.5
2154.25	92
2152.63	84.5
2151.01	86
2149.38	88.5
2147.76	86
2146.13	85
2144.5	85
2142.88	88.5
2141.25	85
2139.62	85.5
2138	90
2136.37	92
2134.74	91
2133.11	93
2131.48	91
2129.85	91.5
2128.22	94
2126.59	88
2124.96	99.5
2123.33	90
2121.7	92.5
2120.07	91.5
2118.44	88.5
2116.8	90
2115.17	90
2113.54	88.5
2111.9	89.5
2110.27	88
2108.63	86
2107	82
2105.36	82
2103.73	91
2102.09	81
2100.45	91.5
2098.82	90
2097.18	92
2095.54	88
2093.9	91
2092.26	92
2090.62	87
2088.98	96
2087.34	93
2085.7	83.5
2084.06	93
2082.42	89.5
2080.78	97
2079.14	88.5
2077.49	93
2075.85	102.5
2074.21	94
2072.56	96
2070.92	91
2069.27	86
2067.63	91
2065.98	86.5
2064.34	97.5
2062.69	97.5
2061.04	90.5
2059.4	90
2057.75	91
2056.1	91.5
2054.45	90.5
2052.8	92
2051.16	90
2049.51	87
2047.86	96
2046.21	90
2044.55	95
2042.9	96.5
2041.25	91.5
2039.6	95.5
2037.95	103
2036.29	99.5
2034.64	92.5
2032.99	95
2031.33	98.5
2029.68	93
2028.02	96
2026.37	92.5
2024.71	97
2023.06	90.5
2021.4	102.5
2019.74	92.5
2018.08	95.5
2016.43	102.5
2014.77	101.5
2013.11	97
2011.45	104
2009.79	95.5
2008.13	91.5
2006.47	92.5
2004.81	90.5
2003.15	96
2001.49	100.5
1999.82	96.5
1998.16	99
1996.5	96.5
1994.84	95.5
1993.17	101
1991.51	99
1989.84	100
1988.18	97.5
1986.51	108
1984.85	103
1983.18	98
1981.51	103
1979.85	98
1978.18	101
1976.51	101
1974.84	108.5
1973.18	91
1971.51	108
1969.84	99
1968.17	110
1966.5	104
1964.83	96
1963.15	108.5
1961.48	105.5
1959.81	105.5
1958.14	107.5
1956.47	112
1954.79	114
1953.12	112
1951.44	105
1949.77	106.5
1948.1	101
1946.42	101.5
1944.74	109
1943.07	113
1941.39	112
1939.71	111
1938.04	111
1936.36	114.5
1934.68	107.5
1933	118
1931.32	115
1929.64	115
1927.96	115
1926.28	111.5
1924.6	110.5
1922.92	111
1921.24	118
1919.56	110.5
1917.87	118
1916.19	112.5
1914.51	114
1912.82	102.5
1911.14	119
1909.46	117.5
1907.77	116.5
1906.09	115
1904.4	108.5
1902.71	107.5
1901.03	120.5
1899.34	113
1897.65	110.5
1895.96	119
1894.28	110.5
1892.59	113.5
1890.9	113.5
1889.21	116
1887.52	115
1885.83	120
1884.14	120.5
1882.45	114
1880.75	115.5
1879.06	115.5
1877.37	111
1875.68	113.5
1873.98	118
1872.29	112
1870.59	119.5
1868.9	118
1867.2	126
1865.51	124.5
1863.81	123.5
1862.12	115.5
1860.42	113
1858.72	115.5
1857.02	108.5
1855.33	129
1853.63	123.5
1851.93	113
1850.23	118
1848.53	123.5
1846.83	121
1845.13	121
1843.43	125.5
1841.73	120
1840.02	122.5
1838.32	122.5
1836.62	125.5
1834.92	125.5
1833.21	125
1831.51	122
1829.8	118
1828.1	120
1826.39	122
1824.69	127.5
1822.98	133
1821.28	131
1819.57	130.5
1817.86	124
1816.15	125
1814.45	126.5
1812.74	125.5
1811.03	122.5
1809.32	124
1807.61	132.5
1805.9	130
1804.19	124
1802.48	122
1800.76	132.5
1799.05	127
1797.34	119
1795.63	131
1793.91	135.5
1792.2	127
1790.48	129
1788.77	129
1787.05	133.5
1785.34	134
1783.62	129
1781.91	130.5
1780.19	133.5
1778.47	125
1776.76	132.5
1775.04	131.5
1773.32	135
1771.6	134.5
1769.88	121
1768.16	140.5
1766.44	132
1764.72	139
1763	136
1761.28	135.5
1759.56	137
1757.83	134.5
1756.11	138
1754.39	134
1752.66	135.5
1750.94	129
1749.21	135.5
1747.49	140
1745.76	132.5
1744.04	139
1742.31	138
1740.59	134.5
1738.86	146
1737.13	140
1735.4	143.5
1733.68	150
1731.95	135
1730.22	148
1728.49	141.5
1726.76	140
1725.03	141
1723.3	146
1721.56	145
1719.83	143
1718.1	136
1716.37	138
1714.63	145
1712.9	147
1711.17	146
1709.43	146.5
1707.7	142
1705.96	140
1704.23	149
1702.49	140.5
1700.75	142.5
1699.02	148.5
1697.28	139.5
1695.54	140
1693.8	139
1692.07	147
1690.33	146
1688.59	144.5
1686.85	145.5
1685.11	154.5
1683.37	158
1681.62	154
1679.88	146.5
1678.14	149
1676.4	154
1674.65	152
1672.91	154.5
1671.17	157
1669.42	159.5
1667.68	164
1665.93	157
1664.19	146
1662.44	152
1660.69	160
1658.95	164.5
1657.2	151
1655.45	158.5
1653.7	152
1651.96	164
1650.21	157.5
1648.46	157
1646.71	171
1644.96	157.5
1643.21	168.5
1641.45	155
1639.7	162
1637.95	169.5
1636.2	174.5
1634.45	169.5
1632.69	176
1630.94	174.5
1629.18	187.5
1627.43	183
1625.67	193.5
1623.92	193
1622.16	195
1620.41	207
1618.65	206
1616.89	215
1615.13	230.5
1613.37	247.5
1611.62	285.5
1609.86	342.5
1608.1	425.5
1606.34	508.5
1604.58	612.5
1602.82	673
1601.05	677.5
1599.29	621.5
1597.53	546.5
1595.77	446
1594.01	386
1592.24	343.5
1590.48	323.5
1588.71	325
1586.95	346
1585.18	376
1583.42	415
1581.65	404
1579.88	359.5
1578.12	322.5
1576.35	273
1574.58	238.5
1572.81	236
1571.05	224.5
1569.28	203
1567.51	208
1565.74	201
1563.97	197.5
1562.19	198.5
1560.42	186.5
1558.65	196
1556.88	204
1555.11	208.5
1553.33	207
1551.56	201
1549.79	189
1548.01	198
1546.24	181.5
1544.46	188.5
1542.69	183
1540.91	179
1539.13	190
1537.36	179
1535.58	188
1533.8	192.5
1532.02	187
1530.24	183.5
1528.46	177.5
1526.68	192.5
1524.9	189.5
1523.12	192.5
1521.34	174
1519.56	172
1517.78	184.5
1516	178.5
1514.21	185
1512.43	175.5
1510.65	188.5
1508.86	180
1507.08	190
1505.29	183
1503.51	179
1501.72	181
1499.93	192.5
1498.15	188
1496.36	198.5
1494.57	196
1492.78	190
1491	198
1489.21	205.5
1487.42	189.5
1485.63	186
1483.84	194
1482.05	196.5
1480.25	185
1478.46	190
1476.67	197.5
1474.88	187
1473.09	191.5
1471.29	192.5
1469.5	199
1467.7	204.5
1465.91	205.5
1464.11	217.5
1462.32	229
1460.52	238
1458.72	247
1456.93	268
1455.13	292.5
1453.33	332.5
1451.53	340.5
1449.74	354.5
1447.94	354.5
1446.14	341.5
1444.34	338
1442.54	321
1440.73	308
1438.93	280.5
1437.13	283.5
1435.33	266
1433.53	253.5
1431.72	236
1429.92	223.5
1428.11	215
1426.31	213
1424.51	222.5
1422.7	209
1420.89	209
1419.09	212.5
1417.28	206
1415.47	201.5
1413.66	211
1411.86	210
1410.05	212
1408.24	216
1406.43	221
1404.62	201
1402.81	217
1401	216
1399.19	223
1397.38	231
1395.56	225
1393.75	219
1391.94	204.5
1390.12	215
1388.31	227
1386.49	224
1384.68	232
1382.87	234.5
1381.05	237
1379.23	247
1377.42	248
1375.6	247
1373.78	250.5
1371.96	261.5
1370.14	258
1368.33	259
1366.51	265.5
1364.69	272
1362.87	279
1361.05	272.5
1359.22	272.5
1357.4	266
1355.58	275
1353.76	261
1351.93	278
1350.11	277
1348.29	276
1346.46	286
1344.64	285
1342.81	292.5
1340.99	303.5
1339.16	301.5
1337.33	311
1335.51	331
1333.68	342
1331.85	354.5
1330.02	350
1328.19	353
1326.36	353
1324.53	351.5
1322.7	342.5
1320.87	346.5
1319.04	336.5
1317.21	330.5
1315.38	322
1313.55	307
1311.71	311.5
1309.88	310.5
1308.05	300.5
1306.21	308
1304.38	297
1302.54	300
1300.71	293
1298.87	299
1297.03	285
1295.2	282.5
1293.36	284
1291.52	290.5
1289.68	274.5
1287.84	259.5
1286	265.5
1284.16	264
1282.32	259.5
1280.48	254
1278.64	253
1276.8	248.5
1274.96	244.5
1273.12	246.5
1271.27	245.5
1269.43	250
1267.59	250
1265.74	244
1263.9	241
1262.05	251.5
1260.21	245
1258.36	243.5
1256.51	248
1254.67	243
1252.82	258
1250.97	246.5
1249.12	252.5
1247.27	251.5
1245.42	256.5
1243.57	272.5
1241.72	262
1239.87	266
1238.02	268
1236.17	262.5
1234.32	268
1232.47	267
1230.61	277.5
1228.76	277.5
1226.9	281.5
1225.05	308.5
1223.2	317
1221.34	328
1219.48	324.5
1217.63	323.5
